#  Calculations performed with AESOPUS 2.1
#  Tables of Rosseland mean opacities
#  Reference papers: Marigo & Aringer 2009 (A&A, 508, 1539); Marigo et al. 2022 (ApJ 940, 129), 2023 with solid grains
#
#  Definitions:
#  The base-10 logarithm of the Rosseland mean opacity [cm**2/g] as a function
#  of log10(T) for columns of constant log10(R), where:
#  R=density[g/cm**3]/T6**3, T6=1.e-6*T[K]
#
#  Ranges of state parameters
#
#  log10(T) range: nt=  51  values from  4.500  to  2.000
#  log10(T) = [2.000,3.700] in steps of  0.050
#  log10(T) = [3.700,4.500] in steps of  0.050
#
#  log10(R) range: nre=141  values from -8.000  to  6.000
#                           in steps of  0.100
#
#
#  Composition parameters:
#
#       X     = hydrogen mass fraction
#               mh =  1 values from 0.700 to 0.700 in steps of 0.100
#       Zref  = 2.000000E-02  reference metallicity
#       Z     = actual metallicity
#
#       Reference solar mixture: Magg Bergemann Serenelli et al. 2022 A&A 661 A140 ---- Zsun =  0.01654  (C/O)sun =  0.61660
#
#     Zi   element   (ni/nz)sun         (Xi/Z)sun         <Ai>
#
#      3     Li     8.100875E-09     3.280474E-09     6.941739E+00
#      4     Be     1.899031E-08     9.983858E-09     9.012183E+00
#      5     B      2.682452E-07     1.691934E-07     1.081222E+01
#      6     C      2.744934E-01     1.923324E-01     1.201114E+01
#      7     N      7.219913E-02     5.899377E-02     1.400676E+01
#      8     O      4.451762E-01     4.155004E-01     1.599938E+01
#      9     F      1.899031E-05     2.104677E-05     1.899841E+01
#     10     Ne     1.067657E-01     1.256327E-01     2.017132E+01
#     11     Na     1.474456E-03     1.977439E-03     2.298977E+01
#     12     Mg     2.682452E-02     3.804042E-02     2.430955E+01
#     13     Al     2.034379E-03     3.202102E-03     2.698154E+01
#     14     Si     2.941250E-02     4.818948E-02     2.808561E+01
#     15     P      1.943265E-04     3.511255E-04     3.097377E+01
#     16     S      1.092526E-02     2.043583E-02     3.206445E+01
#     17     Cl     1.344411E-04     2.780846E-04     3.545753E+01
#     18     Ar     2.390738E-03     5.571341E-03     3.994766E+01
#     19     K      1.043835E-04     2.381001E-04     3.910130E+01
#     20     Ca     1.772687E-03     4.144371E-03     4.007654E+01
#     21     Sc     8.878344E-07     2.328387E-06     4.495592E+01
#     22     Ti     6.584639E-05     1.839131E-04     4.787893E+01
#     23     V      5.868565E-06     1.743977E-05     5.094157E+01
#     24     Cr     4.154626E-04     1.260236E-03     5.199762E+01
#     25     Mn     2.503410E-04     8.023089E-04     5.493805E+01
#     26     Fe     2.390738E-02     7.788802E-02     5.584731E+01
#     27     Co     6.738015E-05     2.316479E-04     5.893319E+01
#     28     Ni     1.314111E-03     4.500340E-03     5.870525E+01
#     29     Cu     1.226399E-05     4.546373E-05     6.354723E+01
#     30     Zn     3.009761E-05     1.148045E-04     6.538687E+01
#     31     Ga     5.734980E-07     2.332430E-06     6.971723E+01
#     32     Ge     1.943265E-06     8.233550E-06     7.263045E+01
#     33     As     1.772687E-07     7.747747E-07     7.492160E+01
#     34     Se     1.943265E-06     8.954514E-06     7.899028E+01
#     35     Br     3.225017E-07     1.503317E-06     7.990652E+01
#     36     Kr     1.543235E-06     7.544269E-06     8.380092E+01
#     37     Rb     3.009761E-07     1.500625E-06     8.546807E+01
#     38     Sr     5.604436E-07     2.864535E-06     8.761646E+01
#     39     Y      1.314111E-07     6.815517E-07     8.890587E+01
#     40     Zr     3.009761E-07     1.601682E-06     9.122375E+01
#     41     Nb     1.988529E-08     1.077740E-07     9.290638E+01
#     42     Mo     6.288281E-08     3.517547E-07     9.588960E+01
#     43     Tc     0.000000E+00     0.000000E+00     9.690639E+01
#     44     Ru     5.230364E-08     3.083729E-07     1.010666E+02
#     45     Rh     9.963959E-09     5.981457E-08     1.029055E+02
#     46     Pd     3.702814E-08     2.298981E-07     1.064307E+02
#     47     Ag     6.584639E-09     4.143460E-08     1.078685E+02
#     48     Cd     4.451762E-08     2.919592E-07     1.124227E+02
#     49     In     3.455667E-08     2.314618E-07     1.148183E+02
#     50     Sn     7.560177E-08     5.236521E-07     1.187338E+02
#     51     Sb     7.560177E-09     5.369940E-08     1.217590E+02
#     52     Te     1.314111E-07     9.783941E-07     1.276278E+02
#     53     I      2.445862E-08     1.810695E-07     1.269045E+02
#     54     Xe     1.117975E-07     8.562620E-07     1.312920E+02
#     55     Cs     1.020075E-08     7.908810E-08     1.329054E+02
#     56     Ba     1.407771E-07     1.127784E-06     1.373275E+02
#     57     La     1.117975E-08     9.059159E-08     1.389055E+02
#     58     Ce     2.873637E-08     2.348831E-07     1.401146E+02
#     59     Pr     3.877323E-09     3.187154E-08     1.409077E+02
#     60     Nd     2.390738E-08     2.011673E-07     1.442411E+02
#     61     Pm     0.000000E+00     0.000000E+00     1.449128E+02
#     62     Sm     7.736276E-09     6.785951E-08     1.503635E+02
#     63     Eu     2.503410E-09     2.219268E-08     1.519642E+02
#     64     Gd     9.963959E-09     9.140606E-08     1.572558E+02
#     65     Tb     6.005262E-10     5.567519E-09     1.589254E+02
#     66     Dy     1.043835E-08     9.895142E-08     1.625001E+02
#     67     Ho     1.375726E-09     1.323637E-08     1.649304E+02
#     68     Er     6.434754E-09     6.278618E-08     1.672614E+02
#     69     Tm     7.560177E-10     7.450511E-09     1.689342E+02
#     70     Yb     9.091425E-09     9.177127E-08     1.730367E+02
#     71     Lu     8.682243E-10     8.861840E-09     1.749667E+02
#     72     Hf     5.604436E-09     5.835579E-08     1.784907E+02
#     73     Ta     5.604436E-10     5.915915E-09     1.809479E+02
#     74     W      9.741637E-09     1.044749E-07     1.838415E+02
#     75     Re     1.440562E-09     1.564873E-08     1.862134E+02
#     76     Os     1.732335E-08     1.922491E-07     1.902374E+02
#     77     Ir     1.692902E-08     1.898271E-07     1.922161E+02
#     78     Pt     4.770149E-08     5.428533E-07     1.950806E+02
#     79     Au     7.736276E-09     8.889163E-08     1.969666E+02
#     80     Hg     1.020075E-08     1.193693E-07     2.005969E+02
#     81     Tl     6.005262E-09     7.160031E-08     2.043838E+02
#     82     Pb     6.738015E-08     8.145118E-07     2.072187E+02
#     83     Bi     3.877323E-09     4.726873E-08     2.089804E+02
#     84     Po     0.000000E+00     0.000000E+00     2.089824E+02
#     85     At     0.000000E+00     0.000000E+00     2.099870E+02
#     86     Rn     0.000000E+00     0.000000E+00     2.220176E+02
#     87     Fr     0.000000E+00     0.000000E+00     2.230198E+02
#     88     Ra     0.000000E+00     0.000000E+00     2.260254E+02
#     89     Ac     0.000000E+00     0.000000E+00     2.270278E+02
#     90     Th     9.091425E-10     1.230630E-08     2.320381E+02
#     91     Pa     0.000000E+00     0.000000E+00     2.310359E+02
#     92     U      2.390738E-10     3.319695E-09     2.380289E+02
#     93     Np     0.000000E+00     0.000000E+00     2.370482E+02
#     94     Pu     0.000000E+00     0.000000E+00     2.440642E+02
#     95     Am     0.000000E+00     0.000000E+00     2.430614E+02
#     96     Cm     0.000000E+00     0.000000E+00     2.470704E+02
#     97     Bk     0.000000E+00     0.000000E+00     2.470703E+02
#     98     Cf     0.000000E+00     0.000000E+00     2.510796E+02
#     99     Es     0.000000E+00     0.000000E+00     2.540881E+02
#
#
#  Abundance ratio variations of metals with respect to 
#  scaled-solar values: [X_i/Fe] (in dex)
#  Fe-group elements: V, Cr, Mn, Fe, Co, Ni, Cu, Zn
#  Reference metallicity is preserved:  Zref = Z
#  No change in any metal abundance
#
#       1    H         -----      34   [Se/Fe]=   0.000      67   [Ho/Fe]=   0.000
#       2    He        -----      35   [Br/Fe]=   0.000      68   [Er/Fe]=   0.000
#       3   [Li/Fe]=   0.000      36   [Kr/Fe]=   0.000      69   [Tm/Fe]=   0.000
#       4   [Be/Fe]=   0.000      37   [Rb/Fe]=   0.000      70   [Yb/Fe]=   0.000
#       5   [B /Fe]=   0.000      38   [Sr/Fe]=   0.000      71   [Lu/Fe]=   0.000
#       6   [C /Fe]=   0.000      39   [Y /Fe]=   0.000      72   [Hf/Fe]=   0.000
#       7   [N /Fe]=   0.000      40   [Zr/Fe]=   0.000      73   [Ta/Fe]=   0.000
#       8   [O /Fe]=   0.000      41   [Nb/Fe]=   0.000      74   [W /Fe]=   0.000
#       9   [F /Fe]=   0.000      42   [Mo/Fe]=   0.000      75   [Re/Fe]=   0.000
#      10   [Ne/Fe]=   0.000      43   [Tc/Fe]=   0.000      76   [Os/Fe]=   0.000
#      11   [Na/Fe]=   0.000      44   [Ru/Fe]=   0.000      77   [Ir/Fe]=   0.000
#      12   [Mg/Fe]=   0.000      45   [Rh/Fe]=   0.000      78   [Pt/Fe]=   0.000
#      13   [Al/Fe]=   0.000      46   [Pd/Fe]=   0.000      79   [Au/Fe]=   0.000
#      14   [Si/Fe]=   0.000      47   [Ag/Fe]=   0.000      80   [Hg/Fe]=   0.000
#      15   [P /Fe]=   0.000      48   [Cd/Fe]=   0.000      81   [Tl/Fe]=   0.000
#      16   [S /Fe]=   0.000      49   [In/Fe]=   0.000      82   [Pb/Fe]=   0.000
#      17   [Cl/Fe]=   0.000      50   [Sn/Fe]=   0.000      83   [Bi/Fe]=   0.000
#      18   [Ar/Fe]=   0.000      51   [Sb/Fe]=   0.000      84   [Po/Fe]=   0.000
#      19   [K /Fe]=   0.000      52   [Te/Fe]=   0.000      85   [At/Fe]=   0.000
#      20   [Ca/Fe]=   0.000      53   [I /Fe]=   0.000      86   [Rn/Fe]=   0.000
#      21   [Sc/Fe]=   0.000      54   [Xe/Fe]=   0.000      87   [Fr/Fe]=   0.000
#      22   [Ti/Fe]=   0.000      55   [Cs/Fe]=   0.000      88   [Ra/Fe]=   0.000
#      23    V         -----      56   [Ba/Fe]=   0.000      89   [Ac/Fe]=   0.000
#      24    Cr        -----      57   [La/Fe]=   0.000      90   [Th/Fe]=   0.000
#      25    Mn        -----      58   [Ce/Fe]=   0.000      91   [Pa/Fe]=   0.000
#      26    Fe        -----      59   [Pr/Fe]=   0.000      92   [U /Fe]=   0.000
#      27    Co        -----      60   [Nd/Fe]=   0.000      93   [Np/Fe]=   0.000
#      28    Ni        -----      61   [Pm/Fe]=   0.000      94   [Pu/Fe]=   0.000
#      29    Cu        -----      62   [Sm/Fe]=   0.000      95   [Am/Fe]=   0.000
#      30    Zn        -----      63   [Eu/Fe]=   0.000      96   [Cm/Fe]=   0.000
#      31   [Ga/Fe]=   0.000      64   [Gd/Fe]=   0.000      97   [Bk/Fe]=   0.000
#      32   [Ge/Fe]=   0.000      65   [Tb/Fe]=   0.000      98   [Cf/Fe]=   0.000
#      33   [As/Fe]=   0.000      66   [Dy/Fe]=   0.000      99   [Es/Fe]=   0.000
#
#
#  Individual variations of metal abundances (mass fraction): log10(variation factor) (in dex)
#  Reference metallicity is in general NOT preserved Zref != Z
#
#       1   H    -----      34   Se   0.000      67   Ho   0.000
#       2   He   -----      35   Br   0.000      68   Er   0.000
#       3   Li   0.000      36   Kr   0.000      69   Tm   0.000
#       4   Be   0.000      37   Rb   0.000      70   Yb   0.000
#       5   B    0.000      38   Sr   0.000      71   Lu   0.000
#       6   C    0.000      39   Y    0.000      72   Hf   0.000
#       7   N    0.000      40   Zr   0.000      73   Ta   0.000
#       8   O    0.000      41   Nb   0.000      74   W    0.000
#       9   F    0.000      42   Mo   0.000      75   Re   0.000
#      10   Ne   0.000      43   Tc   0.000      76   Os   0.000
#      11   Na   0.000      44   Ru   0.000      77   Ir   0.000
#      12   Mg   0.000      45   Rh   0.000      78   Pt   0.000
#      13   Al   0.000      46   Pd   0.000      79   Au   0.000
#      14   Si   0.000      47   Ag   0.000      80   Hg   0.000
#      15   P    0.000      48   Cd   0.000      81   Tl   0.000
#      16   S    0.000      49   In   0.000      82   Pb   0.000
#      17   Cl   0.000      50   Sn   0.000      83   Bi   0.000
#      18   Ar   0.000      51   Sb   0.000      84   Po   0.000
#      19   K    0.000      52   Te   0.000      85   At   0.000
#      20   Ca   0.000      53   I    0.000      86   Rn   0.000
#      21   Sc   0.000      54   Xe   0.000      87   Fr   0.000
#      22   Ti   0.000      55   Cs   0.000      88   Ra   0.000
#      23   V    0.000      56   Ba   0.000      89   Ac   0.000
#      24   Cr   0.000      57   La   0.000      90   Th   0.000
#      25   Mn   0.000      58   Ce   0.000      91   Pa   0.000
#      26   Fe   0.000      59   Pr   0.000      92   U    0.000
#      27   Co   0.000      60   Nd   0.000      93   Np   0.000
#      28   Ni   0.000      61   Pm   0.000      94   Pu   0.000
#      29   Cu   0.000      62   Sm   0.000      95   Am   0.000
#      30   Zn   0.000      63   Eu   0.000      96   Cm   0.000
#      31   Ga   0.000      64   Gd   0.000      97   Bk   0.000
#      32   Ge   0.000      65   Tb   0.000      98   Cf   0.000
#      33   As   0.000      66   Dy   0.000      99   Es   0.000
#
#
#              VARIATION GRID OF C/O - C - N ABUNDANCES (in mass fraction)
#
#          FCO = log10(variation factor) of C/O ratio
#
#
#           FC = log10(variation factor) of carbon abundance
#
#
#           FN = log10(variation factor) of nitrogen abundance
#
#
#           FO = FC - FCO = log10(variation factor) of oxygen abundance 
#
#
#              TOTAL NUMBER OF TABLES:   mh x mco x mc x mn =     1
#
#
# TABLE      1     X=  0.700000     Y=  0.280000     Zref= 2.000000E-02     Z= 2.000000E-02     FCO=  0.000   FC=  0.000   FN=  0.000   FO=  0.000  C/O=   4.6289E-01
#
#     Zi   element     ni/nz             Xi/Z            ni/nH            Xi/XH             <Ai>
#
#      3     Li     8.100875E-09     3.280474E-09     1.360976E-11     9.372784E-11       6.941739
#      4     Be     1.899031E-08     9.983858E-09     3.190440E-11     2.852531E-10       9.012183
#      5     B      2.682452E-07     1.691934E-07     4.506616E-10     4.834097E-09      10.812224
#      6     C      2.744934E-01     1.923324E-01     4.611589E-04     5.495212E-03      12.011137
#      7     N      7.219913E-02     5.899377E-02     1.212971E-04     1.685536E-03      14.006763
#      8     O      4.451762E-01     4.155004E-01     7.479122E-04     1.187144E-02      15.999375
#      9     F      1.899031E-05     2.104677E-05     3.190440E-08     6.013364E-07      18.998405
#     10     Ne     1.067657E-01     1.256327E-01     1.793703E-04     3.589506E-03      20.171321
#     11     Na     1.474456E-03     1.977439E-03     2.477140E-06     5.649825E-05      22.989771
#     12     Mg     2.682452E-02     3.804042E-02     4.506616E-05     1.086869E-03      24.309551
#     13     Al     2.034379E-03     3.202102E-03     3.417831E-06     9.148862E-05      26.981541
#     14     Si     2.941250E-02     4.818948E-02     4.941407E-05     1.376842E-03      28.085611
#     15     P      1.943265E-04     3.511255E-04     3.264755E-07     1.003216E-05      30.973765
#     16     S      1.092526E-02     2.043583E-02     1.835484E-05     5.838807E-04      32.064451
#     17     Cl     1.344411E-04     2.780846E-04     2.258659E-07     7.945273E-06      35.457532
#     18     Ar     2.390738E-03     5.571341E-03     4.016526E-06     1.591812E-04      39.947662
#     19     K      1.043835E-04     2.381001E-04     1.753681E-07     6.802860E-06      39.101298
#     20     Ca     1.772687E-03     4.144371E-03     2.978178E-06     1.184106E-04      40.076544
#     21     Sc     8.878344E-07     2.328387E-06     1.491594E-09     6.652535E-08      44.955917
#     22     Ti     6.584639E-05     1.839131E-04     1.106243E-07     5.254661E-06      47.878925
#     23     V      5.868565E-06     1.743977E-05     9.859402E-09     4.982791E-07      50.941572
#     24     Cr     4.154626E-04     1.260236E-03     6.979922E-07     3.600674E-05      51.997623
#     25     Mn     2.503410E-04     8.023089E-04     4.205819E-07     2.292311E-05      54.938046
#     26     Fe     2.390738E-02     7.788802E-02     4.016526E-05     2.225372E-03      55.847311
#     27     Co     6.738015E-05     2.316479E-04     1.132011E-07     6.618511E-06      58.933189
#     28     Ni     1.314111E-03     4.500340E-03     2.207754E-06     1.285812E-04      58.705254
#     29     Cu     1.226399E-05     4.546373E-05     2.060395E-08     1.298964E-06      63.547234
#     30     Zn     3.009761E-05     1.148045E-04     5.056507E-08     3.280129E-06      65.386875
#     31     Ga     5.734980E-07     2.332430E-06     9.634975E-10     6.664084E-08      69.717234
#     32     Ge     1.943265E-06     8.233550E-06     3.264755E-09     2.352443E-07      72.630452
#     33     As     1.772687E-07     7.747747E-07     2.978178E-10     2.213642E-08      74.921600
#     34     Se     1.943265E-06     8.954514E-06     3.264755E-09     2.558433E-07      78.990277
#     35     Br     3.225017E-07     1.503317E-06     5.418145E-10     4.295192E-08      79.906523
#     36     Kr     1.543235E-06     7.544269E-06     2.592690E-09     2.155506E-07      83.800924
#     37     Rb     3.009761E-07     1.500625E-06     5.056507E-10     4.287501E-08      85.468072
#     38     Sr     5.604436E-07     2.864535E-06     9.415656E-10     8.184385E-08      87.616461
#     39     Y      1.314111E-07     6.815517E-07     2.207754E-10     1.947291E-08      88.905867
#     40     Zr     3.009761E-07     1.601682E-06     5.056507E-10     4.576234E-08      91.223746
#     41     Nb     1.988529E-08     1.077740E-07     3.340801E-11     3.079257E-09      92.906380
#     42     Mo     6.288281E-08     3.517547E-07     1.056454E-10     1.005013E-08      95.889605
#     43     Tc     0.000000E+00     0.000000E+00     0.000000E+00     0.000000E+00      96.906390
#     44     Ru     5.230364E-08     3.083729E-07     8.787202E-11     8.810654E-09     101.066641
#     45     Rh     9.963959E-09     5.981457E-08     1.673981E-11     1.708988E-09     102.905511
#     46     Pd     3.702814E-08     2.298981E-07     6.220862E-11     6.568518E-09     106.430727
#     47     Ag     6.584639E-09     4.143460E-08     1.106243E-11     1.183846E-09     107.868530
#     48     Cd     4.451762E-08     2.919592E-07     7.479122E-11     8.341693E-09     112.422659
#     49     In     3.455667E-08     2.314618E-07     5.805647E-11     6.613196E-09     114.818279
#     50     Sn     7.560177E-08     5.236521E-07     1.270137E-10     1.496149E-08     118.733825
#     51     Sb     7.560177E-09     5.369940E-08     1.270137E-11     1.534268E-09     121.758986
#     52     Te     1.314111E-07     9.783941E-07     2.207754E-10     2.795412E-08     127.627845
#     53     I      2.445862E-08     1.810695E-07     4.109137E-11     5.173414E-09     126.904474
#     54     Xe     1.117975E-07     8.562620E-07     1.878238E-10     2.446463E-08     131.292004
#     55     Cs     1.020075E-08     7.908810E-08     1.713762E-11     2.259660E-09     132.905440
#     56     Ba     1.407771E-07     1.127784E-06     2.365106E-10     3.222239E-08     137.327464
#     57     La     1.117975E-08     9.059159E-08     1.878238E-11     2.588331E-09     138.905511
#     58     Ce     2.873637E-08     2.348831E-07     4.827815E-11     6.710945E-09     140.114588
#     59     Pr     3.877323E-09     3.187154E-08     6.514043E-12     9.106156E-10     140.907700
#     60     Nd     2.390738E-08     2.011673E-07     4.016526E-11     5.747637E-09     144.241079
#     61     Pm     0.000000E+00     0.000000E+00     0.000000E+00     0.000000E+00     144.912790
#     62     Sm     7.736276E-09     6.785951E-08     1.299722E-11     1.938843E-09     150.363469
#     63     Eu     2.503410E-09     2.219268E-08     4.205819E-12     6.340765E-10     151.964200
#     64     Gd     9.963959E-09     9.140606E-08     1.673981E-11     2.611602E-09     157.255784
#     65     Tb     6.005262E-10     5.567519E-09     1.008906E-12     1.590720E-10     158.925390
#     66     Dy     1.043835E-08     9.895142E-08     1.753681E-11     2.827184E-09     162.500111
